Raman shift	Spent	Raman shift	Fresh
cm^-1		cm^-1	
103.924	27.2285714285714	103.924	25.5857142857143
108.93	21.9857142857143	108.93	22.1571428571429
113.934	20.1714285714286	113.934	21.0142857142857
118.934	23.5857142857143	118.934	23.4142857142857
123.935	24.1	123.935	23.3142857142857
128.934	23.0428571428571	128.934	22.0428571428571
133.929	21.2428571428571	133.929	19.8142857142857
138.925	23.8571428571429	138.925	22.6714285714286
143.92	22.8	143.92	21.9857142857143
148.91	21.8	148.91	22.0714285714286
153.901	20.8571428571429	153.901	20.7142857142857
158.891	22.3571428571429	158.891	19.6714285714286
163.876	21.0714285714286	163.876	17.7142857142857
168.862	20.3285714285714	168.862	19.5428571428571
173.844	22.8	173.844	23.7
178.827	25.2714285714286	178.827	23.7857142857143
183.806	23.6714285714286	183.806	21.8571428571429
188.785	19.6142857142857	188.785	21.2428571428571
193.764	20.0428571428571	193.764	21.1
198.737	21.0857142857143	198.737	19.4571428571429
203.712	21.3285714285714	203.712	17.9571428571429
208.683	23.3	208.683	21.8142857142857
213.655	25.3857142857143	213.655	22.2571428571429
218.622	20.5857142857143	218.622	20.9857142857143
223.59	18.2428571428571	223.59	22.1285714285714
228.554	20.2428571428571	228.554	25.5
233.52	22.2142857142857	233.52	23.5857142857143
238.48	19.9	238.48	19.4714285714286
243.44	21.8	243.44	21.9285714285714
248.4	25.5285714285714	248.4	23.7285714285714
253.356	24	253.356	22.4428571428571
258.313	20.6	258.313	19.8714285714286
263.266	21.2142857142857	263.266	20.9428571428571
268.22	22.1428571428571	268.22	19.5714285714286
273.17	19.7571428571429	273.17	18.9571428571429
278.118	18.0857142857143	278.118	19.9714285714286
283.067	20.1571428571429	283.067	20.3285714285714
288.011	19.6857142857143	288.011	18.3
292.957	18.0714285714286	292.957	17.5857142857143
297.899	18.3285714285714	297.899	20.4428571428571
302.839	21.1714285714286	302.839	21.7
307.78	20.9142857142857	307.78	17.5285714285714
312.717	21.5714285714286	312.717	15.8
317.652	23.3714285714286	317.652	19.7714285714286
322.585	25.2142857142857	322.585	22.6571428571429
327.52	22.0285714285714	327.52	17.0142857142857
332.45	19.2714285714286	332.45	18.6
337.379	19.5857142857143	337.379	21.0285714285714
342.309	23.3428571428571	342.309	22.2714285714286
347.235	23.1	347.235	19.8142857142857
352.159	23.2714285714286	352.159	24.1857142857143
357.081	21.7714285714286	357.081	22.7142857142857
362.004	22.8285714285714	362.004	19.1142857142857
366.924	21.3285714285714	366.924	19.0428571428571
371.841	22.1	371.841	24.4857142857143
376.757	22.6857142857143	376.757	24.6285714285714
381.672	21.9428571428571	381.672	20.4857142857143
386.587	20.9714285714286	386.587	20.8
391.498	22.8428571428571	391.498	23.8428571428571
396.408	24.4285714285714	396.408	23.3857142857143
401.316	23.7	401.316	22.3
406.223	21.0714285714286	406.223	25.7714285714286
411.127	21.3714285714286	411.127	25.7857142857143
416.033	20.7714285714286	416.033	18.8857142857143
420.935	20.7	420.935	17.9285714285714
425.835	22.2142857142857	425.835	22.7
430.734	23.4	430.734	22.9857142857143
435.631	22.2285714285714	435.631	17.7571428571429
440.526	17.9428571428571	440.526	19.1857142857143
445.42	20.7428571428571	445.42	23.7428571428571
450.312	24.4428571428571	450.312	23.2857142857143
455.203	26.4285714285714	455.203	20.9142857142857
460.092	24.4857142857143	460.092	23.5142857142857
464.979	24.8	464.979	23.9571428571429
469.865	23.2714285714286	469.865	20.6428571428571
474.749	21.3857142857143	474.749	21.5857142857143
479.632	22.7	479.632	26.0428571428571
484.513	25.3714285714286	484.513	25.2285714285714
489.393	25.3428571428571	489.393	20.5142857142857
494.271	21.7857142857143	494.271	22.2571428571429
499.147	22.2142857142857	499.147	20.0285714285714
504.022	23.1428571428571	504.022	16.8857142857143
508.896	23.4142857142857	508.896	16.2
513.767	22.0285714285714	513.767	23.7
518.638	23.7285714285714	518.638	22.4
523.506	23.2428571428571	523.506	18.4714285714286
528.373	23.9	528.373	17.7857142857143
533.239	24.2428571428571	533.239	21.7142857142857
538.103	24.1285714285714	538.103	20.2428571428571
542.965	22.7	542.965	16.8571428571429
547.826	20.7714285714286	547.826	19.2857142857143
552.682	22.5571428571429	552.682	22.5571428571429
557.54	21.8857142857143	557.54	20.8428571428571
562.396	21.4857142857143	562.396	17.9571428571429
567.25	21.5142857142857	567.25	21.5142857142857
572.103	23.9857142857143	572.103	21.1857142857143
576.955	22.9857142857143	576.955	16.7571428571429
581.802	19.9428571428571	581.802	16.6857142857143
586.65	24.5	586.65	21.7714285714286
591.497	26.4428571428571	591.497	20.9142857142857
596.342	25.7714285714286	596.342	17.7
601.186	21.6142857142857	601.186	23.0571428571429
606.025	24.9857142857143	606.025	26.0285714285714
610.865	23.3	610.865	21.1
615.704	21.9	615.704	17.9
620.542	20.7	620.542	25.0428571428571
625.375	24.9428571428571	625.375	27.9
630.209	25.3857142857143	630.209	22.4142857142857
635.042	22.6571428571429	635.042	20.7571428571429
639.87	22.0285714285714	639.87	25.8857142857143
644.7	23.2571428571429	644.7	24.8
649.528	23.9	649.528	19.3
654.355	24.2428571428571	654.355	20.1
659.177	26.1142857142857	659.177	22.6857142857143
664.001	26.8714285714286	664.001	21.6714285714286
668.82	22.9428571428571	668.82	20.6428571428571
673.64	23.7285714285714	673.64	25.1857142857143
678.459	24.7428571428571	678.459	24.5285714285714
683.273	22.8285714285714	683.273	18.6285714285714
688.089	19.4	688.089	18.1
692.903	24.1285714285714	692.903	24.0857142857143
697.713	25.8857142857143	697.713	25.2571428571429
702.524	22.8428571428571	702.524	18.5285714285714
707.331	27.8714285714286	707.331	24.7428571428571
712.139	32.4142857142857	712.139	27.0714285714286
716.943	30.5857142857143	716.943	21.9571428571429
721.748	24.3	721.748	15.4857142857143
726.549	26.6714285714286	726.549	21.1571428571429
731.351	25.9142857142857	731.351	22.7285714285714
736.148	24.9857142857143	736.148	20.1857142857143
740.947	21.4285714285714	740.947	22.5
745.742	21.7285714285714	745.742	21.9571428571429
750.538	20.7428571428571	750.538	18.4428571428571
755.329	22.1714285714286	755.329	15.8571428571429
760.122	24.7285714285714	760.122	21.6571428571429
764.91	24.9285714285714	764.91	23.6571428571429
769.7	20.7857142857143	769.7	18.7285714285714
774.485	19.7428571428571	774.485	14.6571428571429
779.272	23.0571428571429	779.272	17.7142857142857
784.054	23.7571428571429	784.054	19.6
788.835	22.6571428571429	788.835	17.6571428571429
793.617	26.5714285714286	793.617	22.3571428571429
798.395	27.8	798.395	24.0714285714286
803.171	24.6428571428571	803.171	22.6857142857143
807.948	20.9	807.948	19.0857142857143
812.722	22.2428571428571	812.722	25.5142857142857
817.496	25.8142857142857	817.496	25.0857142857143
822.266	24.3571428571429	822.266	20.4
827.035	23.0428571428571	827.035	18.5714285714286
831.802	25.4	831.802	22.9
836.57	26.2857142857143	836.57	22.2
841.334	22.7428571428571	841.334	18.1714285714286
846.097	19.5857142857143	846.097	21.5142857142857
850.861	23.8571428571429	850.861	23.4142857142857
855.62	22.9714285714286	855.62	19.6857142857143
860.378	22.6714285714286	860.378	18.5857142857143
865.135	24	865.135	25.5714285714286
869.892	26.8285714285714	869.892	25.5571428571429
874.646	24.9571428571429	874.646	21.9571428571429
879.398	22.5428571428571	879.398	21.5714285714286
884.148	25.0142857142857	884.148	24.6
888.897	25.6	888.897	22.4857142857143
893.647	24.4142857142857	893.647	19.9142857142857
898.393	23.8714285714286	898.393	23.1571428571429
903.138	27.0142857142857	903.138	22.5
907.881	25.7857142857143	907.881	16.6285714285714
912.622	22.7285714285714	912.622	15.6285714285714
917.362	22.8857142857143	917.362	21.5857142857143
922.103	24.9857142857143	922.103	22.3
926.84	23.2571428571429	926.84	18.1857142857143
931.575	21.4857142857143	931.575	19.9571428571429
936.309	20.9857142857143	936.309	21.3714285714286
941.041	22.5285714285714	941.041	19.9714285714286
945.772	22.5714285714286	945.772	17.7428571428571
950.502	24.6428571428571	950.502	21.6571428571429
955.23	24.8857142857143	955.23	21.2
959.956	23.2571428571429	959.956	18.2857142857143
964.681	23.6285714285714	964.681	17.5
969.404	24.6857142857143	969.404	20.6714285714286
974.126	24.0714285714286	974.126	21.7857142857143
978.846	22.4285714285714	978.846	16.8285714285714
983.565	22.1285714285714	983.565	18.9714285714286
988.283	24.9571428571429	988.283	19.8857142857143
992.999	22.9428571428571	992.999	21.2857142857143
997.713	22.7285714285714	997.713	17.2857142857143
1002.43	22.9285714285714	1002.43	21.8571428571429
1007.14	26.2142857142857	1007.14	20.2
1011.85	21.3285714285714	1011.85	20.1571428571429
1016.56	23.2285714285714	1016.56	19.1
1021.26	25.9142857142857	1021.26	20.8285714285714
1025.97	28.8571428571429	1025.97	18.5
1030.67	26.2	1030.67	18.6571428571429
1035.37	28.8857142857143	1035.37	21.7142857142857
1040.07	25.4857142857143	1040.07	20.8142857142857
1044.77	22.6	1044.77	18.2428571428571
1049.47	21.1142857142857	1049.47	20.5
1054.17	27.2285714285714	1054.17	25.3142857142857
1058.86	27.2714285714286	1058.86	23.1142857142857
1063.56	22.4571428571429	1063.56	18.7
1068.24	21.7142857142857	1068.24	22.5142857142857
1072.94	25.1142857142857	1072.94	25.5571428571429
1077.62	28.4857142857143	1077.62	23.0285714285714
1082.31	23.6714285714286	1082.31	19.5571428571429
1087	25.3571428571429	1087	23.3285714285714
1091.68	26.4285714285714	1091.68	23.2142857142857
1096.36	28.2	1096.36	20.6142857142857
1101.05	24.1142857142857	1101.05	17.7714285714286
1105.73	25.9285714285714	1105.73	23.9142857142857
1110.4	28.9	1110.4	23.4428571428571
1115.08	28.5	1115.08	21.4428571428571
1119.76	24.6857142857143	1119.76	22.6
1124.43	26.4142857142857	1124.43	26.4428571428571
1129.1	28.4285714285714	1129.1	24.8571428571429
1133.77	25.0428571428571	1133.77	21.4
1138.44	22.8285714285714	1138.44	25.6428571428571
1143.11	27.0857142857143	1143.11	23.6857142857143
1147.77	27.1285714285714	1147.77	21.1571428571429
1152.44	25.6857142857143	1152.44	18.6571428571429
1157.1	24.7857142857143	1157.1	23.7714285714286
1161.76	30.4142857142857	1161.76	24.0285714285714
1166.42	28.7714285714286	1166.42	19.9714285714286
1171.08	31.8285714285714	1171.08	20.5714285714286
1175.74	30.4	1175.74	21.3857142857143
1180.39	31	1180.39	21.1142857142857
1185.05	26.9142857142857	1185.05	18.9142857142857
1189.7	29.4	1189.7	25.0428571428571
1194.35	28.3571428571429	1194.35	23.9285714285714
1199	26.6142857142857	1199	15.1428571428571
1203.65	25.5285714285714	1203.65	14.7142857142857
1208.3	31.4	1208.3	21.1
1212.94	32.9285714285714	1212.94	24.5571428571429
1217.58	29.4	1217.58	17.5714285714286
1222.23	30.3	1222.23	20.1428571428571
1226.87	33.2	1226.87	23.2571428571429
1231.51	32.1857142857143	1231.51	24.2857142857143
1236.14	27.3714285714286	1236.14	18.2571428571429
1240.78	31.4714285714286	1240.78	20.1571428571429
1245.42	32.1714285714286	1245.42	20.9857142857143
1250.05	28.5714285714286	1250.05	20
1254.68	27.0285714285714	1254.68	20.4285714285714
1259.31	33.9	1259.31	22.2285714285714
1263.94	34.8857142857143	1263.94	23.7285714285714
1268.57	30.7857142857143	1268.57	19.4285714285714
1273.19	29.0285714285714	1273.19	20.7142857142857
1277.82	33.4285714285714	1277.82	20.5571428571429
1282.44	32.1285714285714	1282.44	23.1
1287.06	30.6	1287.06	23.2857142857143
1291.68	33.7428571428571	1291.68	24.8571428571429
1296.3	36.0857142857143	1296.3	22.7428571428571
1300.92	28.5142857142857	1300.92	20.3142857142857
1305.53	24.5142857142857	1305.53	22.1428571428571
1310.15	29.3	1310.15	23.7714285714286
1314.76	33.4857142857143	1314.76	25.1571428571429
1319.37	33.0428571428571	1319.37	23.8
1323.98	34.7428571428571	1323.98	25.7571428571429
1328.59	36.1857142857143	1328.59	22.3
1333.19	32.6142857142857	1333.19	19.3285714285714
1337.8	29.4142857142857	1337.8	20.7
1342.4	31.8	1342.4	27.1
1347.01	34.2714285714286	1347.01	25.6857142857143
1351.61	34.4285714285714	1351.61	20.8142857142857
1356.21	34.9571428571428	1356.21	24.1142857142857
1360.8	35.8428571428571	1360.8	26.0428571428571
1365.4	31.4428571428571	1365.4	21.4142857142857
1370	29.4428571428571	1370	16.4142857142857
1374.59	34.9	1374.59	20.9857142857143
1379.18	40.9571428571429	1379.18	22.4142857142857
1383.77	40.3857142857143	1383.77	20.0571428571429
1388.36	39.4142857142857	1388.36	18.9714285714286
1392.95	41.4	1392.95	23.8285714285714
1397.53	38.5571428571429	1397.53	23.4714285714286
1402.12	34.2142857142857	1402.12	21.0857142857143
1406.7	36.4142857142857	1406.7	23.0428571428571
1411.29	43.8142857142857	1411.29	25
1415.87	39.4428571428571	1415.87	21.8142857142857
1420.44	33.5285714285714	1420.44	18.4428571428571
1425.02	35.2857142857143	1425.02	22.5
1429.6	41.7142857142857	1429.6	23.2428571428571
1434.17	38.3142857142857	1434.17	20.8428571428571
1438.75	36.1285714285714	1438.75	21.8857142857143
1443.32	39.8	1443.32	26.4142857142857
1447.89	39.2428571428571	1447.89	26.1857142857143
1452.46	35.6285714285714	1452.46	23.4571428571429
1457.02	36.3714285714286	1457.02	23.8428571428571
1461.59	39.7571428571429	1461.59	23.2428571428571
1466.15	37.4857142857143	1466.15	20.3857142857143
1470.72	35.9714285714286	1470.72	20.2571428571429
1475.28	37.0714285714286	1475.28	26.0428571428571
1479.84	35.1714285714286	1479.84	27.3
1484.4	33.8571428571429	1484.4	24.1285714285714
1488.95	35.7142857142857	1488.95	22.1714285714286
1493.51	41.3714285714286	1493.51	26.1428571428571
1498.06	38.9857142857143	1498.06	25.4285714285714
1502.62	33.2428571428571	1502.62	22.3714285714286
1507.17	32.2	1507.17	25.1714285714286
1511.72	36.3	1511.72	26.8857142857143
1516.27	36.1	1516.27	23.2285714285714
1520.81	33.8571428571429	1520.81	19.8142857142857
1525.36	37.9	1525.36	24.2857142857143
1529.9	40	1529.9	25.1857142857143
1534.45	37.9285714285714	1534.45	22.8571428571429
1538.99	36.0857142857143	1538.99	23.3857142857143
1543.53	41.2714285714286	1543.53	23.9571428571429
1548.06	43.0428571428571	1548.06	23.5142857142857
1552.6	43.3428571428571	1552.6	22.5571428571429
1557.14	42.8714285714286	1557.14	26.3571428571429
1561.67	41.2142857142857	1561.67	23.5142857142857
1566.2	38.5714285714286	1566.2	23.0428571428571
1570.74	40.7571428571429	1570.74	24.2714285714286
1575.27	48.1857142857143	1575.27	28.0857142857143
1579.79	53.6571428571429	1579.79	24.9
1584.32	52.5571428571429	1584.32	21.2285714285714
1588.85	52.7142857142857	1588.85	23.2571428571429
1593.37	56.0428571428571	1593.37	24.4714285714286
1597.89	57.5857142857143	1597.89	25.1142857142857
1602.41	57.6571428571429	1602.41	22.0714285714286
1606.93	61.7142857142857	1606.93	24.0142857142857
1611.45	65.4571428571429	1611.45	20.1285714285714
1615.97	63.2285714285714	1615.97	18.9428571428571
1620.48	62.3428571428571	1620.48	19.6428571428571
1625	61.7857142857143	1625	21.1428571428571
1629.51	53.6714285714286	1629.51	18.9857142857143
1634.02	46.4142857142857	1634.02	18.9428571428571
1638.53	46.5	1638.53	24.2285714285714
1643.04	53.0142857142857	1643.04	22.5714285714286
1647.55	46.5428571428571	1647.55	20.2
1652.05	39.0857142857143	1652.05	20.5285714285714
1656.56	37.8571428571429	1656.56	26.6142857142857
1661.06	41.3428571428571	1661.06	25
1665.56	35.5285714285714	1665.56	23.9428571428571
1670.06	32.3285714285714	1670.06	24.6142857142857
1674.56	36.5142857142857	1674.56	25.5571428571429
1679.06	39.5714285714286	1679.06	22.7571428571429
1683.55	35.5714285714286	1683.55	20.1571428571429
1688.05	33.5428571428571	1688.05	24.6
1692.54	35.3285714285714	1692.54	26.3285714285714
1697.03	33.6	1697.03	25.3571428571429
1701.52	31.8285714285714	1701.52	23.0571428571429
1706.01	33.4428571428572	1706.01	27.3714285714286
1710.5	36.9857142857143	1710.5	26.6285714285714
1714.98	34.9571428571429	1714.98	26.0857142857143
1719.47	32.7857142857143	1719.47	27
1723.95	34.4857142857143	1723.95	27.8285714285714
1728.43	38.3714285714286	1728.43	25.3
1732.91	35.5	1732.91	24.7857142857143
1737.39	34.4714285714286	1737.39	28.6571428571429
1741.87	34.8571428571429	1741.87	26.2857142857143
1746.34	35.4857142857143	1746.34	23.7857142857143
1750.82	32.8714285714286	1750.82	23.5571428571429
1755.29	35.7142857142857	1755.29	28.1428571428571
1759.76	36.1714285714286	1759.76	26.3142857142857
1764.23	34.5285714285714	1764.23	24.3428571428571
1768.7	33.7142857142857	1768.7	27.8428571428571
1773.17	35.2857142857143	1773.17	29.1571428571429
1777.63	34.1	1777.63	27.8571428571429
1782.1	30.7285714285714	1782.1	24.6714285714286
1786.56	29.3857142857143	1786.56	25.4285714285714
1791.02	32.0428571428571	1791.02	24.3428571428571
1795.48	33.2142857142857	1795.48	25.1428571428571
1799.94	32.1428571428571	1799.94	24.4857142857143
1804.4	35.4428571428571	1804.4	24.8571428571429
1808.86	36.8714285714286	1808.86	22.3571428571429
1813.31	33.5714285714286	1813.31	22.8857142857143
1817.76	30.4857142857143	1817.76	24.9428571428571
1822.21	33.6285714285714	1822.21	23.9142857142857
1826.66	33.1857142857143	1826.66	21.2285714285714
1831.11	30.5428571428571	1831.11	21.1285714285714
1835.56	32.6857142857143	1835.56	24.2142857142857
1840.01	34.1714285714286	1840.01	21.7714285714286
1844.46	31.5428571428571	1844.46	22.5857142857143
1848.9	31.5428571428571	1848.9	23.7285714285714
1853.34	36.1571428571429	1853.34	24.9714285714286
1857.78	36.6142857142857	1857.78	22.5857142857143
1862.22	31.8	1862.22	22.3857142857143
1866.66	32.9857142857143	1866.66	23.9571428571429
1871.1	36.6285714285714	1871.1	24.1
1875.53	34.0142857142857	1875.53	22.6857142857143
1879.96	30.9428571428571	1879.96	23.1857142857143
1884.4	35.1571428571429	1884.4	24.7142857142857
1888.83	39.1714285714286	1888.83	24.3
1893.26	35.4	1893.26	23.4285714285714
1897.69	31.7142857142857	1897.69	26.9857142857143
1902.11	35.3428571428571	1902.11	28.4714285714286
1906.54	35.6714285714286	1906.54	25.8714285714286
1910.96	31.3142857142857	1910.96	22.8
1915.39	31.5714285714286	1915.39	25.3428571428571
1919.8	37.8142857142857	1919.8	27.0857142857143
1924.23	38.1285714285714	1924.23	26.1428571428571
1928.64	35.2714285714286	1928.64	25.5142857142857
1933.06	39.2	1933.06	29.0142857142857
1937.48	42.0285714285714	1937.48	28.5428571428571
1941.89	36.5428571428571	1941.89	26.8857142857143
1946.3	32.4428571428571	1946.3	27.4714285714286
1950.72	36.2285714285714	1950.72	30.4
1955.13	39.7857142857143	1955.13	26.5142857142857
1959.53	37.9571428571429	1959.53	24.2857142857143
1963.94	34.4428571428571	1963.94	26.2857142857143
1968.35	33.3428571428571	1968.35	30.1
1972.76	32.5714285714286	1972.76	26.1857142857143
1977.16	34.2285714285714	1977.16	23.8
1981.56	38.1285714285714	1981.56	28
1985.96	40.1714285714286	1985.96	31.6571428571429
1990.36	38.2285714285714	1990.36	27.2571428571429
1994.76	35	1994.76	24
1999.16	35.6571428571429	1999.16	27.1714285714286
2003.55	32.9	2003.55	27
2007.94	32.7142857142857	2007.94	26.4714285714286
2012.33	35.4285714285714	2012.33	27.1714285714286
2016.73	41.1	2016.73	27.7714285714286
2021.12	37.4428571428571	2021.12	24.2
2025.5	35.2571428571429	2025.5	26.2714285714286
2029.89	38.4	2029.89	27.1571428571429
2034.28	40.8	2034.28	23.3142857142857
2038.66	37.9	2038.66	19.6
2043.04	37.4857142857143	2043.04	21.7
2047.43	35.4571428571429	2047.43	24.5571428571429
2051.81	32.8428571428571	2051.81	22.2571428571429
2056.19	34.1285714285714	2056.19	22.1428571428571
2060.56	40.0142857142857	2060.56	25.4857142857143
2064.94	38.7857142857143	2064.94	26.6428571428571
2069.31	36.7857142857143	2069.31	25.8857142857143
2073.69	39.1285714285714	2073.69	25.4428571428571
2078.06	42.1	2078.06	25.5428571428571
2082.43	37.8285714285714	2082.43	21.9571428571429
2086.8	34.8142857142857	2086.8	24.3142857142857
2091.17	37.6571428571429	2091.17	28.3857142857143
2095.53	41.9	2095.53	27.0714285714286
2099.9	38.5714285714286	2099.9	22.0857142857143
2104.26	37.1428571428571	2104.26	25.5857142857143
2108.62	40.9428571428571	2108.62	29.5142857142857
2112.98	42.0571428571428	2112.98	28.3571428571429
2117.35	39.2	2117.35	24.0571428571429
2121.7	37.7285714285714	2121.7	29.6714285714286
2126.06	39.5285714285714	2126.06	32.8285714285714
2130.42	40.8714285714286	2130.42	29.7571428571429
2134.77	37.5714285714286	2134.77	22.8857142857143
2139.12	37.3	2139.12	28
2143.47	39.3	2143.47	27.1142857142857
2147.83	40.0857142857143	2147.83	24.7142857142857
2152.17	37.9285714285714	2152.17	24.9285714285714
2156.52	38.5571428571429	2156.52	32.2714285714286
2160.87	42.8857142857143	2160.87	29.5714285714286
2165.21	39.2714285714286	2165.21	23.9714285714286
2169.56	38.7285714285714	2169.56	26.5857142857143
2173.9	38.2571428571429	2173.9	29.1428571428571
2178.24	41.6571428571429	2178.24	28.4285714285714
2182.58	39.5714285714286	2182.58	25.3142857142857
2186.92	38.0142857142857	2186.92	29.7
2191.25	39.0571428571428	2191.25	27.7285714285714
2195.59	40.8714285714286	2195.59	23.4285714285714
2199.92	39.4857142857143	2199.92	22.8285714285714
2204.26	38.6285714285714	2204.26	28.8142857142857
2208.59	43.6857142857143	2208.59	29.0428571428571
2212.92	44.8142857142857	2212.92	27.3571428571429
2217.25	43.2142857142857	2217.25	28.2285714285714
2221.57	42.8285714285714	2221.57	30.7
2225.9	43.9571428571429	2225.9	27.3428571428571
2230.22	41.9714285714286	2230.22	25.0714285714286
2234.55	39.1285714285714	2234.55	26.3428571428571
2238.87	43.4142857142857	2238.87	26.6285714285714
2243.19	43.8857142857143	2243.19	22.7285714285714
2247.51	45.5571428571429	2247.51	26.6285714285714
2251.83	45.0285714285714	2251.83	33.9714285714286
2256.14	49.2714285714286	2256.14	35.4428571428571
2260.46	48.4571428571429	2260.46	28.6142857142857
2264.77	49.3857142857143	2264.77	29.7571428571429
2269.09	50.9571428571429	2269.09	32.6857142857143
2273.4	50.0142857142857	2273.4	31.1857142857143
2277.71	46.8571428571429	2277.71	25.4
2282.02	44.6714285714286	2282.02	28.1285714285714
2286.32	44.5285714285714	2286.32	29.7142857142857
2290.63	43.9571428571429	2290.63	29.2285714285714
2294.94	43.6714285714286	2294.94	28.3
2299.24	47.3714285714286	2299.24	30.9571428571429
2303.54	49.4714285714286	2303.54	27.4571428571429
2307.84	46.7714285714286	2307.84	25.9571428571429
2312.14	42.4285714285714	2312.14	29.4285714285714
2316.44	45.0428571428571	2316.44	30.0857142857143
2320.73	53.0714285714286	2320.73	36.9285714285714
2325.03	78.8714285714286	2325.03	66.2714285714286
2329.32	110.328571428571	2329.32	110.557142857143
2333.62	124.157142857143	2333.62	122.542857142857
2337.91	108.685714285714	2337.91	107.557142857143
2342.2	95.6428571428571	2342.2	94.0428571428571
2346.49	102.842857142857	2346.49	101.6
2350.78	96.1285714285714	2350.78	89.9285714285714
2355.06	73.3142857142857	2355.06	63.2714285714286
2359.35	49.3142857142857	2359.35	42.1
2363.63	49.2	2363.63	34.7285714285714
2367.91	44.6571428571429	2367.91	28.7142857142857
2372.19	41.5714285714286	2372.19	27.4714285714286
2376.47	42.1571428571429	2376.47	32.8142857142857
2380.75	47.5	2380.75	28.6857142857143
2385.03	44.3857142857143	2385.03	25.6285714285714
2389.3	41.0428571428571	2389.3	28.1
2393.58	45.8857142857143	2393.58	31.7714285714286
2397.85	45.3714285714286	2397.85	28.7285714285714
2402.12	42.6285714285714	2402.12	26.5428571428571
2406.39	42.2142857142857	2406.39	31.5714285714286
2410.66	49.2142857142857	2410.66	29.3571428571429
2414.93	47.7857142857143	2414.93	23.9571428571429
2419.2	44.9	2419.2	21.6285714285714
2423.46	43.3142857142857	2423.46	29.8428571428571
2427.72	45.4857142857143	2427.72	28.9142857142857
2431.99	44.3285714285714	2431.99	23.8285714285714
2436.25	42.0571428571429	2436.25	24.0714285714286
2440.51	45.8571428571429	2440.51	28.8428571428571
2444.77	51.7285714285714	2444.77	27.2857142857143
2449.02	49.4428571428572	2449.02	26.6428571428571
2453.28	45.2857142857143	2453.28	28.8571428571429
2457.53	46.3	2457.53	29.1142857142857
2461.79	47	2461.79	23.6571428571429
2466.04	44.8428571428571	2466.04	23.6285714285714
2470.29	46.6428571428571	2470.29	26.5142857142857
2474.54	48.5142857142857	2474.54	25.0285714285714
2478.79	44.5142857142857	2478.79	21.1571428571429
2483.03	42.1	2483.03	23.5571428571429
2487.28	47.1428571428571	2487.28	27.3285714285714
2491.52	50.9142857142857	2491.52	26.5142857142857
2495.77	48.9857142857143	2495.77	25.8428571428571
2500.01	48.9571428571429	2500.01	30.5
2504.25	49.9714285714286	2504.25	30.6571428571429
2508.49	48.7	2508.49	24.7571428571429
2512.72	47.4428571428571	2512.72	24.6
2516.96	47.7	2516.96	29.7285714285714
2521.2	46.2285714285714	2521.2	32.5714285714286
2525.43	45.8285714285714	2525.43	27.8142857142857
2529.66	44.6571428571429	2529.66	27.7714285714286
2533.89	47.2285714285714	2533.89	29.1428571428571
2538.12	45.1571428571429	2538.12	29.6428571428571
2542.35	45.3857142857143	2542.35	28.9
2546.58	45.8857142857143	2546.58	30.3142857142857
2550.8	50.8	2550.8	29.0571428571429
2555.03	50.1857142857143	2555.03	26.2428571428571
2559.25	46.6428571428571	2559.25	27.7285714285714
2563.48	49.1285714285714	2563.48	30.8285714285714
2567.7	50.9714285714286	2567.7	29.3714285714286
2571.92	49.8	2571.92	27
2576.13	45.6714285714286	2576.13	29.9714285714286
2580.35	47	2580.35	29.7
2584.57	49.7	2584.57	24.1857142857143
2588.78	52.1285714285714	2588.78	22.5428571428571
2592.99	54.0857142857143	2592.99	26.1714285714286
2597.2	55.8428571428571	2597.2	28.7142857142857
2601.41	52.9	2601.41	27.8857142857143
2605.62	50.1714285714286	2605.62	31.4
2609.83	48.1857142857143	2609.83	29.7571428571429
2614.04	48.2285714285714	2614.04	26.2142857142857
2618.24	46.8714285714286	2618.24	24.0285714285714
2622.45	51.3428571428571	2622.45	30.5714285714286
2626.65	54.1714285714286	2626.65	30.9428571428571
2630.85	49.4	2630.85	25.5571428571429
2635.05	46.4571428571429	2635.05	24.2714285714286
2639.25	49.8571428571429	2639.25	28.4571428571429
2643.45	53.8571428571429	2643.45	26.6142857142857
2647.65	51.4571428571429	2647.65	20.8428571428571
2651.84	50.0857142857143	2651.84	23.7428571428571
2656.03	49.9571428571429	2656.03	27.0571428571429
2660.23	53.5428571428571	2660.23	26.2
2664.42	52.8857142857143	2664.42	24.7
2668.61	52.5857142857143	2668.61	30.0714285714286
2672.8	54.9285714285714	2672.8	28.2142857142857
2676.98	54.4714285714286	2676.98	24.3714285714286
2681.17	50.5571428571429	2681.17	25.7857142857143
2685.35	53.5285714285714	2685.35	31.8571428571429
2689.54	58.4428571428572	2689.54	30.3857142857143
2693.72	55.4857142857143	2693.72	25.3428571428571
2697.9	51.7857142857143	2697.9	28.2857142857143
2702.08	56.1571428571429	2702.08	27.9142857142857
2706.26	57.8857142857143	2706.26	25.6857142857143
2710.44	54.0142857142857	2710.44	24.7571428571429
2714.61	52.3714285714286	2714.61	30.4
2718.79	55.7285714285714	2718.79	29.5571428571429
2722.96	52.4285714285714	2722.96	28.8571428571429
2727.13	48.1428571428571	2727.13	31.4
2731.3	53.0857142857143	2731.3	29.1571428571429
2735.47	58.7857142857143	2735.47	25.4285714285714
2739.64	58.2285714285714	2739.64	24.2
2743.81	56.3571428571429	2743.81	30.4142857142857
2747.97	58.6285714285714	2747.97	28.3285714285714
2752.14	55.8571428571429	2752.14	27.0428571428571
2756.3	51.1	2756.3	27.5428571428571
2760.46	51.5857142857143	2760.46	32.3714285714286
2764.63	54.8	2764.63	27.7714285714286
2768.78	54.2428571428571	2768.78	23.4285714285714
2772.94	52.9	2772.94	27.3428571428571
2777.1	52.6714285714286	2777.1	31.3857142857143
2781.26	54.5	2781.26	29.6
2785.41	53.6857142857143	2785.41	24.5571428571429
2789.56	59.0285714285714	2789.56	29.5
2793.71	57.2285714285714	2793.71	27.5
2797.87	58.9142857142857	2797.87	26.2285714285714
2802.01	54.6142857142857	2802.01	26.4857142857143
2806.16	59.3714285714286	2806.16	31.9571428571429
2810.31	59.3571428571429	2810.31	31.2142857142857
2814.45	59.5285714285714	2814.45	27.8285714285714
2818.6	58.0857142857143	2818.6	29.4571428571429
2822.74	65.7714285714286	2822.74	29.9571428571429
2826.88	67.9714285714286	2826.88	27.0428571428571
2831.02	62.2571428571429	2831.02	24.9571428571429
2835.16	60.2714285714286	2835.16	29.1142857142857
2839.3	59.0285714285714	2839.3	31.5571428571429
2843.44	56.9428571428571	2843.44	27.7285714285714
2847.57	57.0714285714286	2847.57	27.5428571428571
2851.71	62.9714285714286	2851.71	31.2571428571429
2855.84	63.9571428571429	2855.84	29.6142857142857
2859.97	60.2285714285714	2859.97	25.7571428571429
2864.1	62.9	2864.1	25.9285714285714
2868.23	66.6285714285714	2868.23	26.8285714285714
2872.36	65.7428571428571	2872.36	24.8428571428571
2876.49	57.1428571428571	2876.49	26.2142857142857
2880.61	60.6857142857143	2880.61	31.2857142857143
2884.74	63.7142857142857	2884.74	27.8285714285714
2888.86	62.1142857142857	2888.86	22.4428571428571
2892.98	52.6857142857143	2892.98	25.4714285714286
2897.1	57.4714285714286	2897.1	31.7714285714286
2901.22	62.7714285714286	2901.22	32.8
2905.34	60.7	2905.34	26.1
2909.45	56.7571428571429	2909.45	27.6714285714286
2913.57	62.4285714285714	2913.57	27.5285714285714
2917.68	66.4857142857143	2917.68	29.5285714285714
2921.8	64.3	2921.8	28.3857142857143
2925.91	62.3571428571429	2925.91	33.2285714285714
2930.02	64.0428571428571	2930.02	30.8285714285714
2934.13	61.2714285714286	2934.13	29.8428571428571
2938.24	60.3142857142857	2938.24	30.0285714285714
2942.34	62.8	2942.34	32.3285714285714
2946.45	62.9857142857143	2946.45	28.1285714285714
2950.55	59.2142857142857	2950.55	27.2571428571429
2954.66	57.1	2954.66	32.7857142857143
2958.76	63.6285714285714	2958.76	34.9142857142857
2962.86	63.5857142857143	2962.86	28.8142857142857
2966.96	60.7714285714286	2966.96	25.4428571428571
2971.06	62.1857142857143	2971.06	29.5
2975.15	66.6571428571429	2975.15	30.2142857142857
2979.25	64.6285714285714	2979.25	25.9285714285714
2983.34	59.4428571428572	2983.34	28.8571428571429
2987.44	65.2714285714286	2987.44	31.2571428571429
2991.53	68.0285714285714	2991.53	29.9428571428571
2995.62	66.0285714285714	2995.62	26.7428571428571
2999.71	62.8	2999.71	31.3285714285714
3003.8	66.2571428571429	3003.8	32.2428571428571
3007.88	63.5	3007.88	28.9285714285714
3011.97	60.8857142857143	3011.97	26.7714285714286
3016.05	63.1571428571429	3016.05	31.2
3020.14	68.6	3020.14	31.3142857142857
3024.22	66.0142857142857	3024.22	27.4285714285714
3028.3	66.3428571428571	3028.3	27.6571428571429
3032.38	66.0285714285714	3032.38	30.4714285714286
3036.46	67.8428571428571	3036.46	28.6428571428571
3040.53	65.4	3040.53	24.5142857142857
3044.61	69.0285714285714	3044.61	27.5
3048.69	69.7571428571429	3048.69	29.5714285714286
3052.76	67.9428571428572	3052.76	29.1142857142857
3056.83	63.2857142857143	3056.83	26.9285714285714
3060.9	67.8857142857143	3060.9	29.5714285714286
3064.97	68.6142857142857	3064.97	29.8285714285714
3069.04	64.5714285714286	3069.04	28.9428571428572
3073.11	61.6	3073.11	29.7428571428571
3077.17	67.7571428571429	3077.17	29.3285714285714
3081.24	68.6714285714286	3081.24	27.7
3085.3	65.9285714285714	3085.3	27.9571428571429
3089.37	66.5857142857143	3089.37	30.4142857142857
3093.43	69.7714285714286	3093.43	28.5142857142857
3097.49	65.7714285714286	3097.49	26.0571428571429
3101.55	64.2571428571429	3101.55	28.6857142857143
3105.6	69.6142857142857	3105.6	29.9285714285714
3109.66	71.8285714285714	3109.66	31.0428571428571
3113.71	66.8571428571429	3113.71	31.4857142857143
3117.77	64.5142857142857	3117.77	33.7428571428571
3121.82	67.1142857142857	3121.82	29.8142857142857
3125.87	64.8142857142857	3125.87	26.4714285714286
3129.92	60.8428571428571	3129.92	29.5428571428571
3133.97	64.1142857142857	3133.97	33.6428571428571
3138.02	70.4571428571429	3138.02	32.0142857142857
3142.07	70.5714285714286	3142.07	27.4571428571429
3146.11	66.2285714285714	3146.11	29.1428571428571
3150.16	67.0714285714286	3150.16	30.8
3154.2	68.7	3154.2	29.0714285714286
3158.24	69.7428571428571	3158.24	28.4714285714286
3162.28	69.0857142857143	3162.28	33.5857142857143
3166.32	71.1571428571429	3166.32	33.9285714285714
3170.36	71.9142857142857	3170.36	31.3428571428571
3174.39	72.8285714285714	3174.39	31.1142857142857
3178.43	73.5142857142857	3178.43	34.7
3182.47	72.5	3182.47	31.5285714285714
3186.5	69.8	3186.5	27.7714285714286
3190.53	66.1857142857143	3190.53	30.4714285714286
3194.56	72.5428571428571	3194.56	31.5857142857143
3198.59	78.2285714285714	3198.59	28.1857142857143
3202.62	74.6857142857143	3202.62	29.2428571428571
3206.65	69.9285714285714	3206.65	36.8714285714286
3210.67	71.1428571428572	3210.67	35.6714285714286
3214.7	72.7142857142857	3214.7	26.9428571428571
3218.72	71.7714285714286	3218.72	25.9
3222.74	72.8857142857143	3222.74	29.9285714285714
3226.76	75.4714285714286	3226.76	33.0714285714286
3230.78	75.8428571428571	3230.78	27.9142857142857
3234.8	76.8857142857143	3234.8	29.3714285714286
3238.82	76.0428571428571	3238.82	28.7571428571429
3242.84	74.2285714285714	3242.84	28.7142857142857
3246.85	74.3428571428571	3246.85	27.7142857142857
3250.87	74.4857142857143	3250.87	32.5428571428571
3254.88	74.5285714285714	3254.88	32.1714285714286
3258.89	73.2857142857143	3258.89	30.1
3262.9	74.6285714285714	3262.9	33.2714285714286
3266.91	78.2857142857143	3266.91	33.8571428571429
3270.92	75.8428571428571	3270.92	31.0714285714286
3274.93	71.7	3274.93	30.4857142857143
3278.93	71.6142857142857	3278.93	32.5714285714286
3282.93	74.3857142857143	3282.93	28.1142857142857
3286.94	73.1142857142857	3286.94	26.9142857142857
3290.94	68	3290.94	29.9142857142857
3294.94	72.1142857142857	3294.94	32.6714285714286
3298.94	72.7571428571429	3298.94	27.3571428571429
3302.94	74.4857142857143	3302.94	27.5428571428571
3306.94	73.4857142857143	3306.94	32.5285714285714
3310.93	77.9285714285714	3310.93	32.9
3314.93	74.5714285714286	3314.93	29.5571428571429
3318.92	72.4285714285714	3318.92	30.7142857142857
3322.91	71.0857142857143	3322.91	36.1714285714286
3326.9	72.3857142857143	3326.9	34.2428571428571
3330.89	69.2714285714286	3330.89	29.6714285714286
3334.88	71.3428571428571	3334.88	29.1
3338.87	74.4714285714286	3338.87	34.0285714285714
3342.86	77.7857142857143	3342.86	33.7285714285714
3346.84	70.2285714285714	3346.84	31.8
3350.83	69.0285714285714	3350.83	33.4428571428571
3354.81	71.1714285714286	3354.81	32.2714285714286
3358.79	75.8142857142857	3358.79	29.8142857142857
3362.77	73.3571428571428	3362.77	29.4857142857143
3366.75	74.7285714285714	3366.75	35.4
3370.73	75.9	3370.73	33.7
3374.71	75.4	3374.71	32.4571428571429
3378.68	75.7571428571429	3378.68	33.0285714285714
3382.66	77.8857142857143	3382.66	37.0285714285714
3386.63	78.2714285714286	3386.63	33.6142857142857
3390.6	75.8142857142857	3390.6	30.4285714285714
3394.57	77.7857142857143	3394.57	32.9428571428571
3398.55	82.3	3398.55	32.7714285714286
3402.51	78.3857142857143	3402.51	27.6857142857143
3406.48	72.2428571428571	3406.48	27.9714285714286
3410.45	72.6714285714286	3410.45	32.5857142857143
3414.41	78.8714285714286	3414.41	32.6714285714286
3418.38	75.8857142857143	3418.38	30.9571428571429
3422.34	73.5714285714286	3422.34	33.0857142857143
3426.3	79.8	3426.3	34.5714285714286
3430.26	82.4571428571429	3430.26	34.1285714285714
3434.22	79.5571428571429	3434.22	31.1428571428571
3438.18	77.3	3438.18	32.5
3442.14	79.4857142857143	3442.14	33.1
3446.09	75.1714285714286	3446.09	31.8428571428571
3450.05	74.5428571428571	3450.05	30.2285714285714
3454	79.1	3454	34.9571428571429
3457.95	84.9	3457.95	34.9714285714286
3461.9	78.7	3461.9	31.1571428571429
3465.85	73.3571428571428	3465.85	27.9285714285714
3469.8	73.4428571428572	3469.8	29.4714285714286
3473.75	78.9571428571428	3473.75	30.4
3477.7	79.0714285714286	3477.7	32.7714285714286
3481.64	78.5857142857143	3481.64	36.1714285714286
3485.58	80.6857142857143	3485.58	35.6428571428571
3489.53	81.3142857142857	3489.53	34.2142857142857
3493.47	79.5428571428571	3493.47	33.5285714285714
3497.41	78.3857142857143	3497.41	34.8857142857143
3501.35	84.0428571428571	3501.35	34.5142857142857
3505.29	86.0285714285714	3505.29	34.7285714285714
3509.22	83.6857142857143	3509.22	35.2285714285714
3513.16	81.8	3513.16	35.1571428571429
3517.09	82.3571428571429	3517.09	33.5571428571429
3521.03	78.2	3521.03	33.6
3524.96	78.5	3524.96	37.0285714285714
3528.89	79.0857142857143	3528.89	35.7857142857143
3532.82	81.0285714285714	3532.82	32.1142857142857
3536.75	78.4	3536.75	33.3571428571429
3540.68	80.8428571428571	3540.68	35.6285714285714
3544.6	82.7857142857143	3544.6	33.1571428571429
3548.53	84.3571428571429	3548.53	32.6285714285714
3552.45	81.9	3552.45	34.1571428571429
3556.38	83.4571428571429	3556.38	31.6
3560.3	83.0571428571428	3560.3	30.2
3564.22	82.0714285714286	3564.22	33.8142857142857
3568.14	80.6857142857143	3568.14	38.1285714285714
3572.06	83.8714285714286	3572.06	36.8428571428571
3575.97	81.4285714285714	3575.97	31.8
3579.89	82.9428571428571	3579.89	31.2285714285714
3583.81	86.3857142857143	3583.81	36.0428571428571
3587.72	89.6714285714285	3587.72	35.9857142857143
3591.63	86.5428571428571	3591.63	31.2857142857143
3595.54	84.6428571428572	3595.54	30.0714285714286
3599.45	85.7142857142857	3599.45	31.8428571428571
3603.36	84.7714285714286	3603.36	30.5142857142857
3607.27	85.5142857142857	3607.27	29.1714285714286
3611.18	88.0285714285714	3611.18	32.7
3615.08	88.0857142857143	3615.08	34.3428571428571
3618.99	84.7857142857143	3618.99	32.2
3622.89	83.3142857142857	3622.89	31.7571428571429
3626.79	88.1142857142857	3626.79	34.2285714285714
3630.7	89.5714285714286	3630.7	31.7714285714286
3634.6	91.5428571428571	3634.6	30.0142857142857
3638.49	90.5285714285714	3638.49	33.0571428571429
3642.39	90.4714285714286	3642.39	35.3714285714286
3646.29	90.3285714285714	3646.29	30.6571428571429
3650.18	89.1285714285714	3650.18	30.5285714285714
3654.08	89.4714285714286	3654.08	34.6571428571429
3657.97	89.2714285714286	3657.97	36.2285714285714
3661.86	87.4714285714286	3661.86	32.0571428571429
3665.75	86.7285714285714	3665.75	33.5714285714286
3669.64	90.1714285714286	3669.64	35.5857142857143
3673.53	92.4	3673.53	36.6
3677.42	93.5857142857143	3677.42	32.7857142857143
3681.31	98.1142857142857	3681.31	38.4857142857143
3685.19	98.4571428571429	3685.19	38.5571428571429
3689.07	93.4428571428571	3689.07	34.3
3692.96	90.4285714285714	3692.96	29.5857142857143
3696.84	91.8	3696.84	35.0428571428571
3700.72	94.6142857142857	3700.72	36.9285714285714
3704.6	92.9857142857143	3704.6	30.9571428571429
3708.48	89.7571428571429	3708.48	29.9285714285714
3712.35	90.2	3712.35	31.8857142857143
3716.23	97.4142857142857	3716.23	32.9285714285714
3720.1	97.4714285714286	3720.1	30.4857142857143
3723.98	94.7571428571429	3723.98	35.1
3727.85	94.1428571428571	3727.85	35.8
3731.72	93.5714285714286	3731.72	33.6714285714286
3735.59	90.0571428571429	3735.59	31.6571428571429
3739.46	90.5142857142857	3739.46	34.1
3743.33	92.6	3743.33	34.6857142857143
3747.2	92.6	3747.2	32.7142857142857
3751.06	89.6857142857143	3751.06	35.3
3754.92	95.0857142857143	3754.92	35.9285714285714
3758.79	98.8571428571429	3758.79	32.7857142857143
3762.65	98.9714285714286	3762.65	29.0428571428571
3766.51	95.2	3766.51	34.0857142857143
3770.37	93.7142857142857	3770.37	35.4857142857143
3774.23	95.3428571428571	3774.23	32.9285714285714
3778.09	98.6571428571429	3778.09	33.4571428571429
3781.95	102.7	3781.95	37.2857142857143
3785.8	103.028571428571	3785.8	34.4142857142857
3789.65	103.071428571429	3789.65	29.5285714285714
3793.51	100	3793.51	32.0857142857143
3797.36	98.2142857142857	3797.36	34.2285714285714
3801.21	97.5857142857143	3801.21	31.6714285714286
3805.06	98.4142857142857	3805.06	31.8571428571429
3808.91	97.4571428571429	3808.91	37.4285714285714
3812.76	98.5	3812.76	37.1142857142857
3816.6	94.8142857142857	3816.6	27.0571428571429
3820.45	93.6	3820.45	28.3
3824.29	98.8	3824.29	33.7142857142857
3828.14	107.971428571429	3828.14	36.3
3831.98	101.9	3831.98	29.6285714285714
3835.82	94.5285714285714	3835.82	32.8
3839.66	95.1857142857143	3839.66	34.6285714285714
3843.5	101.314285714286	3843.5	33.3
3847.33	102.385714285714	3847.33	31.1142857142857
3851.17	98.5428571428572	3851.17	35.9428571428571
3855	100.657142857143	3855	38.8857142857143
3858.84	102.514285714286	3858.84	36.1285714285714
3862.67	102.914285714286	3862.67	35.2714285714286
3866.5	99.1142857142857	3866.5	35.1285714285714
3870.33	96.8714285714286	3870.33	32.1
3874.16	99.5142857142857	3874.16	28.6142857142857
3877.99	99.9	3877.99	34.7142857142857
3881.82	104.142857142857	3881.82	36.3428571428571
3885.65	102.971428571429	3885.65	33.3857142857143
3889.47	103.371428571429	3889.47	31.2142857142857
3893.29	106.185714285714	3893.29	37.5142857142857
3897.12	110.342857142857	3897.12	38.0285714285714
3900.94	105.871428571429	3900.94	34.6571428571429
3904.76	100.942857142857	3904.76	34
3908.58	106.257142857143	3908.58	36.2714285714286
3912.4	112.457142857143	3912.4	35.9714285714286
3916.22	113.914285714286	3916.22	34.4
3920.03	108.742857142857	3920.03	37.6428571428571
3923.84	108.457142857143	3923.84	36.7857142857143
3927.66	105.871428571429	3927.66	30.9714285714286
3931.47	105.614285714286	3931.47	30.0142857142857
3935.28	108.371428571429	3935.28	35.4285714285714
3939.09	114.157142857143	3939.09	35.9857142857143
3942.9	115.257142857143	3942.9	32.7571428571429
3946.71	112.785714285714	3946.71	36.0285714285714
3950.52	114.1	3950.52	37.4285714285714
3954.33	113.8	3954.33	35.0142857142857
3958.13	110.585714285714	3958.13	32.1285714285714
3961.93	108.671428571429	3961.93	36.7571428571429
3965.74	108.4	3965.74	35.7714285714286
3969.54	108.7	3969.54	33.2142857142857
3973.34	109.128571428571	3973.34	32.6142857142857
3977.14	111.142857142857	3977.14	37.2428571428571
3980.94	112.985714285714	3980.94	34.4285714285714
3984.73	113.857142857143	3984.73	32.0285714285714
3988.53	112.214285714286	3988.53	36.4
3992.33	115.257142857143	3992.33	40.2857142857143
3996.12	114.328571428778	3996.12	38.2428571432829
3999.91	112.042857143097	3999.91	30.9142857142724
